# This file contains the conversion factor from S/N per pixel    
# to S/N per resolution element (for weak spectral features).    
# This file was created from the B2lookup.m matlab function.     
# The first columns is the wavelength and the sencond one        
# is the conversion factor.                                      
# Author: Fran. R.                                               
                                                                 
363.00   1.55465484 
363.10   1.55603079 
363.20   1.55733766 
363.30   1.55857562 
363.40   1.55974482 
363.50   1.56084544 
363.60   1.56187760 
363.70   1.56284145 
363.80   1.56373712 
363.90   1.56456471 
364.00   1.56532435 
364.10   1.56601612 
364.20   1.49288489 
364.30   1.49612904 
364.40   1.49929974 
364.50   1.50239745 
364.60   1.50542261 
364.70   1.50837568 
364.80   1.51125705 
364.90   1.51406716 
365.00   1.51680639 
365.10   1.51947513 
365.20   1.52207374 
365.30   1.52460259 
365.40   1.52706202 
365.50   1.52945237 
365.60   1.53177396 
365.70   1.53402710 
365.80   1.53621209 
365.90   1.53832924 
366.00   1.54037880 
366.10   1.54236106 
366.20   1.54427627 
366.30   1.54612468 
366.40   1.54790654 
366.50   1.54962206 
366.60   1.55127148 
366.70   1.55285500 
366.80   1.55437282 
366.90   1.55582514 
367.00   1.55721213 
367.10   1.55853398 
367.20   1.55979085 
367.30   1.56098289 
367.40   1.56211026 
367.50   1.56317309 
367.60   1.56417151 
367.70   1.56510566 
367.80   1.56597563 
367.90   1.56678155 
368.00   1.56752351 
368.10   1.49519552 
368.20   1.49834818 
368.30   1.50143139 
368.40   1.50444558 
368.50   1.50739117 
368.60   1.51026856 
368.70   1.51307813 
368.80   1.51582027 
368.90   1.51849533 
369.00   1.52110368 
369.10   1.52364565 
369.20   1.52612157 
369.30   1.52853178 
369.40   1.53087657 
369.50   1.53315625 
369.60   1.53537111 
369.70   1.53752142 
369.80   1.53960747 
369.90   1.54162950 
370.00   1.54358777 
370.10   1.54548253 
370.20   1.54731401 
370.30   1.54908242 
370.40   1.55078799 
370.50   1.55243093 
370.60   1.55401143 
370.70   1.55552968 
370.80   1.55698587 
370.90   1.55838016 
371.00   1.55971273 
371.10   1.56098374 
371.20   1.56219332 
371.30   1.56334164 
371.40   1.56442881 
371.50   1.56545497 
371.60   1.56642024 
371.70   1.56732473 
371.80   1.56816855 
371.90   1.56895179 
372.00   1.56967454 
372.10   1.49430130 
372.20   1.49743660 
372.30   1.50050558 
372.40   1.50350865 
372.50   1.50644620 
372.60   1.50931861 
372.70   1.51212626 
372.80   1.51486951 
372.90   1.51754870 
373.00   1.52016418 
373.10   1.52271627 
373.20   1.52520529 
373.30   1.52763154 
373.40   1.52999534 
373.50   1.53229696 
373.60   1.53453669 
373.70   1.53671479 
373.80   1.53883154 
373.90   1.54088717 
374.00   1.54288194 
374.10   1.54481608 
374.20   1.54668983 
374.30   1.54850338 
374.40   1.55025697 
374.50   1.55195079 
374.60   1.55358504 
374.70   1.55515991 
374.80   1.55667557 
374.90   1.55813220 
375.00   1.55952997 
375.10   1.56086902 
375.20   1.56214952 
375.30   1.56337161 
375.40   1.56453542 
375.50   1.56564109 
375.60   1.56668873 
375.70   1.56767847 
375.80   1.56861041 
375.90   1.56948466 
376.00   1.57030131 
376.10   1.57106045 
376.20   1.49652642 
376.30   1.49958428 
376.40   1.50257888 
376.50   1.50551059 
376.60   1.50837980 
376.70   1.51118684 
376.80   1.51393208 
376.90   1.51661583 
377.00   1.51923844 
377.10   1.52180021 
377.20   1.52430146 
377.30   1.52674247 
377.40   1.52912354 
377.50   1.53144495 
377.60   1.53370697 
377.70   1.53590986 
377.80   1.53805388 
377.90   1.54013926 
378.00   1.54216626 
378.10   1.54413509 
378.20   1.54604599 
378.30   1.54789916 
378.40   1.54969481 
378.50   1.55143315 
378.60   1.55311436 
378.70   1.55473863 
378.80   1.55630614 
378.90   1.55781706 
379.00   1.55927156 
379.10   1.56066978 
379.20   1.56201189 
379.30   1.56329803 
379.40   1.56452833 
379.50   1.56570293 
379.60   1.56682195 
379.70   1.56788552 
379.80   1.56889374 
379.90   1.56984672 
380.00   1.57074456 
380.10   1.57158736 
380.20   1.57237520 
380.30   1.49562544 
380.40   1.49867454 
380.50   1.50166266 
380.60   1.50459016 
380.70   1.50745740 
380.80   1.51026472 
380.90   1.51301245 
381.00   1.51570092 
381.10   1.51833044 
381.20   1.52090132 
381.30   1.52341385 
381.40   1.52586833 
381.50   1.52826502 
381.60   1.53060422 
381.70   1.53288616 
381.80   1.53511113 
381.90   1.53727935 
382.00   1.53939107 
382.10   1.54144652 
382.20   1.54344593 
382.30   1.54538951 
382.40   1.54727748 
382.50   1.54911004 
382.60   1.55088738 
382.70   1.55260969 
382.80   1.55427716 
382.90   1.55588997 
383.00   1.55744828 
383.10   1.55895225 
383.20   1.56040205 
383.30   1.56179782 
383.40   1.56313971 
383.50   1.56442786 
383.60   1.56566240 
383.70   1.56684346 
383.80   1.56797115 
383.90   1.56904560 
384.00   1.57006691 
384.10   1.57103518 
384.20   1.57195052 
384.30   1.57281302 
384.40   1.57362276 
384.50   1.57437983 
384.60   1.49776975 
384.70   1.50075373 
384.80   1.50367901 
384.90   1.50654595 
385.00   1.50935487 
385.10   1.51210609 
385.20   1.51479994 
385.30   1.51743671 
385.40   1.52001670 
385.50   1.52254021 
385.60   1.52500751 
385.70   1.52741887 
385.80   1.52977456 
385.90   1.53207484 
386.00   1.53431996 
386.10   1.53651015 
386.20   1.53864565 
386.30   1.54072670 
386.40   1.54275350 
386.50   1.54472627 
386.60   1.54664523 
386.70   1.54851056 
386.80   1.55032247 
386.90   1.55208114 
387.00   1.55378674 
387.10   1.55543947 
387.20   1.55703948 
387.30   1.55858693 
387.40   1.56008199 
387.50   1.56152480 
387.60   1.56291551 
387.70   1.56425426 
387.80   1.56554118 
387.90   1.56677639 
388.00   1.56796003 
388.10   1.56909220 
388.20   1.57017302 
388.30   1.57120260 
388.40   1.57218103 
388.50   1.57310841 
388.60   1.57398483 
388.70   1.57481037 
388.80   1.57558513 
388.90   1.57630916 
389.00   1.49984620 
389.10   1.50277154 
389.20   1.50564014 
389.30   1.50845233 
389.40   1.51120842 
389.50   1.51390871 
389.60   1.51655351 
389.70   1.51914311 
389.80   1.52167778 
389.90   1.52415781 
390.00   1.52658345 
390.10   1.52895497 
390.20   1.53127261 
390.30   1.53353663 
390.40   1.53574726 
390.50   1.53790473 
390.60   1.54000926 
390.70   1.54206107 
390.80   1.54406037 
390.90   1.54600737 
391.00   1.54790225 
391.10   1.54974522 
391.20   1.55153645 
391.30   1.55327614 
391.40   1.55496444 
391.50   1.55660152 
391.60   1.55818756 
391.70   1.55972270 
391.80   1.56120709 
391.90   1.56264088 
392.00   1.56402420 
392.10   1.56535720 
392.20   1.56664000 
392.30   1.56787272 
392.40   1.56905549 
392.50   1.57018840 
392.60   1.57127158 
392.70   1.57230512 
392.80   1.57328913 
392.90   1.57422369 
393.00   1.57510889 
393.10   1.57594482 
393.20   1.57673155 
393.30   1.57746917 
393.40   1.49893476 
393.50   1.50186260 
393.60   1.50473504 
393.70   1.50755241 
393.80   1.51031500 
393.90   1.51302313 
394.00   1.51567707 
394.10   1.51827712 
394.20   1.52082355 
394.30   1.52331664 
394.40   1.52575663 
394.50   1.52814379 
394.60   1.53047837 
394.70   1.53276059 
394.80   1.53499071 
394.90   1.53716894 
395.00   1.53929551 
395.10   1.54137062 
395.20   1.54339449 
395.30   1.54536731 
395.40   1.54728929 
395.50   1.54916061 
395.60   1.55098146 
395.70   1.55275201 
395.80   1.55447243 
395.90   1.55614289 
396.00   1.55776355 
396.10   1.55933458 
396.20   1.56085610 
396.30   1.56232828 
396.40   1.56375125 
396.50   1.56512515 
396.60   1.56645010 
396.70   1.56772622 
396.80   1.56895365 
396.90   1.57013248 
397.00   1.57126284 
397.10   1.57234482 
397.20   1.57337852 
397.30   1.57436405 
397.40   1.57530149 
397.50   1.57619092 
397.60   1.57703243 
397.70   1.57782610 
397.80   1.57857199 
397.90   1.57927018 
398.00   1.50094760 
398.10   1.50382619 
398.20   1.50665080 
398.30   1.50942173 
398.40   1.51213928 
398.50   1.51480372 
398.60   1.51741536 
398.70   1.51997444 
398.80   1.52248124 
398.90   1.52493603 
399.00   1.52733903 
399.10   1.52969052 
399.20   1.53199071 
399.30   1.53423984 
399.40   1.53643813 
399.50   1.53858581 
399.60   1.54068308 
399.70   1.54273015 
399.80   1.54472722 
399.90   1.54667448 
400.00   1.54857212 
400.10   1.55042032 
400.20   1.55221927 
400.30   1.55396912 
400.40   1.55567005 
400.50   1.55732222 
400.60   1.55892578 
400.70   1.56048088 
400.80   1.56198766 
400.90   1.56344627 
401.00   1.56485684 
401.10   1.56621951 
401.20   1.56753438 
401.30   1.56880159 
401.40   1.57002126 
401.50   1.57119348 
401.60   1.57231837 
401.70   1.57339603 
401.80   1.57442656 
401.90   1.57541004 
402.00   1.57634657 
402.10   1.57723623 
402.20   1.57807911 
402.30   1.57887526 
402.40   1.57962477 
402.50   1.58032770 
402.60   1.50002263 
402.70   1.50290972 
402.80   1.50574372 
402.90   1.50852492 
403.00   1.51125361 
403.10   1.51393008 
403.20   1.51655460 
403.30   1.51912745 
403.40   1.52164888 
403.50   1.52411915 
403.60   1.52653851 
403.70   1.52890720 
403.80   1.53122546 
403.90   1.53349351 
404.00   1.53571158 
404.10   1.53787987 
404.20   1.53999862 
404.30   1.54206801 
404.40   1.54408824 
404.50   1.54605951 
404.60   1.54798201 
404.70   1.54985592 
404.80   1.55168141 
404.90   1.55345865 
405.00   1.55518781 
405.10   1.55686905 
405.20   1.55850253 
405.30   1.56008839 
405.40   1.56162678 
405.50   1.56311784 
405.60   1.56456170 
405.70   1.56595850 
405.80   1.56730836 
405.90   1.56861140 
406.00   1.56986774 
406.10   1.57107750 
406.20   1.57224077 
406.30   1.57335766 
406.40   1.57442828 
406.50   1.57545271 
406.60   1.57643104 
406.70   1.57736337 
406.80   1.57824976 
406.90   1.57909031 
407.00   1.57988508 
407.10   1.58063414 
407.20   1.58133756 
407.30   1.49908452 
407.40   1.50198245 
407.50   1.50482798 
407.60   1.50762142 
407.70   1.51036304 
407.80   1.51305314 
407.90   1.51569198 
408.00   1.51827983 
408.10   1.52081696 
408.20   1.52330361 
408.30   1.52574004 
408.40   1.52812648 
408.50   1.53046317 
408.60   1.53275033 
408.70   1.53498819 
408.80   1.53717696 
408.90   1.53931685 
409.00   1.54140807 
409.10   1.54345081 
409.20   1.54544526 
409.30   1.54739162 
409.40   1.54929005 
409.50   1.55114075 
409.60   1.55294388 
409.70   1.55469960 
409.80   1.55640807 
409.90   1.55806946 
410.00   1.55968391 
410.10   1.56125156 
410.20   1.56277257 
410.30   1.56424705 
410.40   1.56567515 
410.50   1.56705700 
410.60   1.56839271 
410.70   1.56968240 
410.80   1.57092618 
410.90   1.57212417 
411.00   1.57327647 
411.10   1.57438318 
411.20   1.57544439 
411.30   1.57646020 
411.40   1.57743069 
411.50   1.57835596 
411.60   1.57923607 
411.70   1.58007110 
411.80   1.58086113 
411.90   1.58160623 
412.00   1.58230644 
412.10   1.58296185 
412.20   1.50104193 
412.30   1.50390110 
412.40   1.50670870 
412.50   1.50946504 
412.60   1.51217038 
412.70   1.51482500 
412.80   1.51742918 
412.90   1.51998316 
413.00   1.52248720 
413.10   1.52494155 
413.20   1.52734644 
413.30   1.52970211 
413.40   1.53200879 
413.50   1.53426670 
413.60   1.53647605 
413.70   1.53863705 
413.80   1.54074990 
413.90   1.54281481 
414.00   1.54483196 
414.10   1.54680154 
414.20   1.54872374 
414.30   1.55059873 
414.40   1.55242667 
414.50   1.55420775 
414.60   1.55594211 
414.70   1.55762991 
414.80   1.55927131 
414.90   1.56086645 
415.00   1.56241547 
415.10   1.56391852 
415.20   1.56537571 
415.30   1.56678719 
415.40   1.56815306 
415.50   1.56947346 
415.60   1.57074850 
415.70   1.57197829 
415.80   1.57316293 
415.90   1.57430252 
416.00   1.57539717 
416.10   1.57644697 
416.20   1.57745200 
416.30   1.57841236 
416.40   1.57932812 
416.50   1.58019936 
416.60   1.58102615 
416.70   1.58180857 
416.80   1.58254668 
416.90   1.58324054 
417.00   1.58389022 
417.10   1.58449575 
417.20   1.50010379 
417.30   1.50297758 
417.40   1.50580025 
417.50   1.50857208 
417.60   1.51129335 
417.70   1.51396433 
417.80   1.51658528 
417.90   1.51915647 
418.00   1.52167815 
418.10   1.52415056 
418.20   1.52657395 
418.30   1.52894854 
418.40   1.53127457 
418.50   1.53355225 
418.60   1.53578180 
418.70   1.53796343 
418.80   1.54009734 
418.90   1.54218373 
419.00   1.54422280 
419.10   1.54621472 
419.20   1.54815969 
419.30   1.55005788 
419.40   1.55190946 
419.50   1.55371459 
419.60   1.55547345 
419.70   1.55718618 
419.80   1.55885294 
419.90   1.56047387 
420.00   1.56204912 
420.10   1.56357883 
420.20   1.56506313 
420.30   1.56650214 
420.40   1.56789600 
420.50   1.56924482 
420.60   1.57054873 
420.70   1.57180782 
420.80   1.57302221 
420.90   1.57419201 
421.00   1.57531731 
421.10   1.57639820 
421.20   1.57743479 
421.30   1.57842715 
421.40   1.57937536 
421.50   1.58027952 
421.60   1.58113969 
421.70   1.58195595 
421.80   1.58272836 
421.90   1.58345699 
422.00   1.58414190 
422.10   1.58478314 
422.20   1.58538077 
422.30   1.49915104 
422.40   1.50204130 
422.50   1.50488075 
422.60   1.50766967 
422.70   1.51040835 
422.80   1.51309706 
422.90   1.51573606 
423.00   1.51832561 
423.10   1.52086596 
423.20   1.52335737 
423.30   1.52580007 
423.40   1.52819430 
423.50   1.53054027 
423.60   1.53283822 
423.70   1.53508836 
423.80   1.53729090 
423.90   1.53944605 
424.00   1.54155399 
424.10   1.54361493 
424.20   1.54562906 
424.30   1.54759655 
424.40   1.54951759 
424.50   1.55139234 
424.60   1.55322098 
424.70   1.55500366 
424.80   1.55674055 
424.90   1.55843180 
425.00   1.56007756 
425.10   1.56167796 
425.20   1.56323315 
425.30   1.56474327 
425.40   1.56620845 
425.50   1.56762880 
425.60   1.56900446 
425.70   1.57033554 
425.80   1.57162215 
425.90   1.57286440 
426.00   1.57406240 
426.10   1.57521625 
426.20   1.57632605 
426.30   1.57739188 
426.40   1.57841384 
426.50   1.57939201 
426.60   1.58032648 
426.70   1.58121732 
426.80   1.58206460 
426.90   1.58286840 
427.00   1.58362878 
427.10   1.58434581 
427.20   1.58501953 
427.30   1.58565002 
427.40   1.58623731 
427.50   1.58678146 
427.60   1.50109203 
427.70   1.50394980 
427.80   1.50675727 
427.90   1.50951472 
428.00   1.51222241 
428.10   1.51488062 
428.20   1.51748961 
428.30   1.52004963 
428.40   1.52256093 
428.50   1.52502375 
428.60   1.52743831 
428.70   1.52980486 
428.80   1.53212362 
428.90   1.53439479 
429.00   1.53661860 
429.10   1.53879524 
429.20   1.54092492 
429.30   1.54300784 
429.40   1.54504417 
429.50   1.54703410 
429.60   1.54897782 
429.70   1.55087550 
429.80   1.55272730 
429.90   1.55453339 
430.00   1.55629394 
430.10   1.55800908 
430.20   1.55967898 
430.30   1.56130377 
430.40   1.56288361 
430.50   1.56441861 
430.60   1.56590893 
430.70   1.56735468 
430.80   1.56875599 
430.90   1.57011297 
431.00   1.57142575 
431.10   1.57269443 
431.20   1.57391912 
431.30   1.57509991 
431.40   1.57623692 
431.50   1.57733023 
431.60   1.57837994 
431.70   1.57938613 
431.80   1.58034889 
431.90   1.58126829 
432.00   1.58214441 
432.10   1.58297733 
432.20   1.58376710 
432.30   1.58451380 
432.40   1.58521749 
432.50   1.58587822 
432.60   1.58649604 
432.70   1.58707102 
432.80   1.58760318 
432.90   1.58809259 
433.00   1.50300778 
433.10   1.50583505 
433.20   1.50861245 
433.30   1.51134024 
433.40   1.51401870 
433.50   1.51664809 
433.60   1.51922866 
433.70   1.52176066 
433.80   1.52424433 
433.90   1.52667991 
434.00   1.52906763 
434.10   1.53140772 
434.20   1.53370038 
434.30   1.53594583 
434.40   1.53814428 
434.50   1.54029594 
434.60   1.54240099 
434.70   1.54445962 
434.80   1.54647203 
434.90   1.54843840 
435.00   1.55035888 
435.10   1.55223367 
435.20   1.55406292 
435.30   1.55584680 
435.40   1.55758545 
435.50   1.55927904 
435.60   1.56092770 
435.70   1.56253158 
435.80   1.56409082 
435.90   1.56560556 
436.00   1.56707591 
436.10   1.56850201 
436.20   1.56988397 
436.30   1.57122191 
436.40   1.57251595 
436.50   1.57376620 
436.60   1.57497275 
436.70   1.57613570 
436.80   1.57725516 
436.90   1.57833122 
437.00   1.57936396 
437.10   1.58035347 
437.20   1.58129984 
437.30   1.58220313 
437.40   1.58306342 
437.50   1.58388079 
437.60   1.58465530 
437.70   1.58538700 
437.80   1.58607597 
437.90   1.58672226 
438.00   1.58732591 
438.10   1.58788698 
438.20   1.58840551 
438.30   1.58888155 
438.40   1.58931513 
438.50   1.50207336 
438.60   1.50492054 
438.70   1.50771796 
438.80   1.51046588 
438.90   1.51316459 
439.00   1.51581434 
439.10   1.51841539 
439.20   1.52096798 
439.30   1.52347237 
439.40   1.52592879 
439.50   1.52833747 
439.60   1.53069864 
439.70   1.53301251 
439.80   1.53527930 
439.90   1.53749922 
440.00   1.53967247 
440.10   1.54179925 
440.20   1.54387974 
440.30   1.54591415 
440.40   1.54790264 
440.50   1.54984540 
440.60   1.55174260 
440.70   1.55359440 
440.80   1.55540096 
440.90   1.55716245 
441.00   1.55887902 
441.10   1.56055081 
441.20   1.56217797 
441.30   1.56376063 
441.40   1.56529894 
441.50   1.56679303 
441.60   1.56824301 
441.70   1.56964901 
441.80   1.57101116 
441.90   1.57232956 
442.00   1.57360432 
442.10   1.57483555 
442.20   1.57602336 
442.30   1.57716783 
442.40   1.57826907 
442.50   1.57932716 
442.60   1.58034220 
442.70   1.58131426 
442.80   1.58224342 
442.90   1.58312977 
443.00   1.58397336 
443.10   1.58477427 
443.20   1.58553257 
443.30   1.58624831 
443.40   1.58692156 
443.50   1.58755236 
443.60   1.58814076 
443.70   1.58868683 
443.80   1.58919059 
443.90   1.58965209 
444.00   1.59007136 
444.10   1.50113190 
444.20   1.50399980 
444.30   1.50681800 
444.40   1.50958677 
444.50   1.51230640 
444.60   1.51497713 
444.70   1.51759924 
444.80   1.52017297 
444.90   1.52269858 
445.00   1.52517629 
445.10   1.52760634 
445.20   1.52998895 
445.30   1.53232436 
445.40   1.53461277 
445.50   1.53685440 
445.60   1.53904945 
445.70   1.54119811 
445.80   1.54330059 
445.90   1.54535706 
446.00   1.54736772 
446.10   1.54933275 
446.20   1.55125230 
446.30   1.55312657 
446.40   1.55495570 
446.50   1.55673985 
446.60   1.55847919 
446.70   1.56017386 
446.80   1.56182401 
446.90   1.56342977 
447.00   1.56499129 
447.10   1.56650870 
447.20   1.56798212 
447.30   1.56941168 
447.40   1.57079750 
447.50   1.57213969 
447.60   1.57343837 
447.70   1.57469364 
447.80   1.57590561 
447.90   1.57707437 
448.00   1.57820003 
448.10   1.57928268 
448.20   1.58032239 
448.30   1.58131927 
448.40   1.58227338 
448.50   1.58318481 
448.60   1.58405364 
448.70   1.58487992 
448.80   1.58566373 
448.90   1.58640512 
449.00   1.58710417 
449.10   1.58776092 
449.20   1.58837543 
449.30   1.58894775 
449.40   1.58947792 
449.50   1.58996598 
449.60   1.59041198 
449.70   1.59081594 
449.80   1.59117791 
449.90   1.50020460 
450.00   1.50309281 
450.10   1.50593138 
450.20   1.50872059 
450.30   1.51146071 
450.40   1.51415200 
450.50   1.51679474 
450.60   1.51938916 
450.70   1.52193552 
450.80   1.52443406 
450.90   1.52688502 
451.00   1.52928861 
451.10   1.53164507 
451.20   1.53395462 
451.30   1.53621745 
451.40   1.53843379 
451.50   1.54060383 
451.60   1.54272776 
451.70   1.54480578 
451.80   1.54683807 
451.90   1.54882481 
452.00   1.55076618 
452.10   1.55266235 
452.20   1.55451348 
452.30   1.55631973 
452.40   1.55808125 
452.50   1.55979821 
452.60   1.56147075 
452.70   1.56309900 
452.80   1.56468312 
452.90   1.56622322 
453.00   1.56771945 
453.10   1.56917193 
453.20   1.57058077 
453.30   1.57194610 
453.40   1.57326803 
453.50   1.57454667 
453.60   1.57578212 
453.70   1.57697448 
453.80   1.57812386 
453.90   1.57923035 
454.00   1.58029403 
454.10   1.58131500 
454.20   1.58229333 
454.30   1.58322911 
454.40   1.58412241 
454.50   1.58497330 
454.60   1.58578185 
454.70   1.58654813 
454.80   1.58727220 
454.90   1.58795410 
455.00   1.58859391 
455.10   1.58919167 
455.20   1.58974742 
455.30   1.59026122 
455.40   1.59073309 
455.50   1.59116309 
455.60   1.59155123 
455.70   1.59189757 
455.80   1.59220211 
455.90   1.50218583 
